File: Advanced_Physics_Laboratory/Pysical_Properties/XRD/Al.xy
20.0000	311.0000
20.2770	305.0000
20.5541	322.0000
20.8311	287.0000
21.1082	313.0000
21.3852	270.0000
21.6623	285.0000
21.9393	277.0000
22.2164	280.0000
22.4934	246.0000
22.7705	245.0000
23.0475	226.0000
23.3245	256.0000
23.6016	235.0000
23.8786	298.0000
24.1557	263.0000
24.4327	205.0000
24.7098	210.0000
24.9868	193.0000
25.2639	203.0000
25.5409	201.0000
25.8180	173.0000
26.0950	195.0000
26.3720	199.0000
26.6491	203.0000
26.9261	192.0000
27.2032	222.0000
27.4802	251.0000
27.7573	177.0000
28.0343	215.0000
28.3114	218.0000
28.5884	151.0000
28.8655	166.0000
29.1425	148.0000
29.4195	171.0000
29.6966	172.0000
29.9736	187.0000
30.2507	150.0000
30.5277	180.0000
30.8048	147.0000
31.0818	180.0000
31.3589	187.0000
31.6359	172.0000
31.9130	165.0000
32.1900	143.0000
32.4670	144.0000
32.7441	156.0000
33.0211	143.0000
33.2982	147.0000
33.5752	175.0000
33.8523	131.0000
34.1293	168.0000
34.4064	171.0000
34.6834	156.0000
34.9605	151.0000
35.2375	148.0000
35.5145	141.0000
35.7916	166.0000
36.0686	126.0000
36.3457	147.0000
36.6227	175.0000
36.8998	178.0000
37.1768	141.0000
37.4539	168.0000
37.7309	152.0000
38.0080	148.0000
38.2850	365.0000
38.5620	1068
38.8391	163.0000
39.1161	162.0000
39.3932	156.0000
39.6702	157.0000
39.9473	168.0000
40.2243	475.0000
40.5014	139.0000
40.7784	129.0000
41.0555	142.0000
41.3325	149.0000
41.6095	145.0000
41.8866	162.0000
42.1636	188.0000
42.4407	188.0000
42.7177	341.0000
42.9948	202.0000
43.2718	220.0000
43.5489	300.0000
43.8259	220.0000
44.1029	332.0000
44.3800	704.0000
44.6570	14634
44.9341	1856
45.2111	342.0000
45.4882	262.0000
45.7652	266.0000
46.0423	227.0000
46.3193	226.0000
46.5964	211.0000
46.8734	213.0000
47.1504	176.0000
47.4275	192.0000
47.7045	165.0000
47.9816	151.0000
48.2586	145.0000
48.5357	158.0000
48.8127	181.0000
49.0898	140.0000
49.3668	144.0000
49.6439	114.0000
49.9209	140.0000
50.1979	122.0000
50.4750	127.0000
50.7520	130.0000
51.0291	109.0000
51.3061	85.0000
51.5832	101.0000
51.8602	96.0000
52.1373	92.0000
52.4143	81.0000
52.6914	92.0000
52.9684	89.0000
53.2454	90.0000
53.5225	82.0000
53.7995	97.0000
54.0766	85.0000
54.3536	96.0000
54.6307	87.0000
54.9077	92.0000
55.1848	95.0000
55.4618	86.0000
55.7389	80.0000
56.0159	79.0000
56.2929	82.0000
56.5700	92.0000
56.8470	100.0000
57.1241	92.0000
57.4011	93.0000
57.6782	80.0000
57.9552	92.0000
58.2323	105.0000
58.5093	80.0000
58.7864	98.0000
59.0634	107.0000
59.3404	102.0000
59.6175	75.0000
59.8945	92.0000
60.1716	98.0000
60.4486	110.0000
60.7257	84.0000
61.0027	95.0000
61.2798	100.0000
61.5568	108.0000
61.8339	117.0000
62.1109	153.0000
62.3879	113.0000
62.6650	111.0000
62.9420	120.0000
63.2191	130.0000
63.4961	116.0000
63.7732	120.0000
64.0502	120.0000
64.3273	140.0000
64.6043	196.0000
64.8814	605.0000
65.1584	3171
65.4354	506.0000
65.7125	211.0000
65.9895	176.0000
66.2666	156.0000
66.5436	163.0000
66.8207	138.0000
67.0977	160.0000
67.3748	132.0000
67.6518	120.0000
67.9289	134.0000
68.2059	126.0000
68.4829	126.0000
68.7600	136.0000
69.0370	134.0000
69.3141	121.0000
69.5911	145.0000
69.8682	139.0000
70.1452	131.0000
70.4223	125.0000
70.6993	134.0000
70.9764	121.0000
71.2534	133.0000
71.5304	135.0000
71.8075	140.0000
72.0845	144.0000
72.3616	131.0000
72.6386	149.0000
72.9157	145.0000
73.1927	144.0000
73.4698	147.0000
73.7468	173.0000
74.0239	166.0000
74.3009	260.0000
74.5779	186.0000
74.8550	183.0000
75.1320	182.0000
75.4091	193.0000
75.6861	198.0000
75.9632	201.0000
76.2402	213.0000
76.5173	251.0000
76.7943	282.0000
77.0714	249.0000
77.3484	293.0000
77.6254	436.0000
77.9025	1210
78.1795	27468
78.4566	19690
78.7336	724.0000
79.0107	387.0000
79.2877	336.0000
79.5648	308.0000
79.8418	253.0000
80.1189	242.0000
80.3959	229.0000
80.6729	233.0000
80.9500	221.0000
81.2270	207.0000
81.5041	202.0000
81.7811	173.0000
82.0582	228.0000
82.3352	201.0000
82.6123	204.0000
82.8893	177.0000
83.1664	138.0000
83.4434	168.0000
83.7204	154.0000
83.9975	160.0000
84.2745	162.0000
84.5516	142.0000
84.8286	125.0000
85.1057	134.0000
85.3827	136.0000
85.6598	133.0000
85.9368	144.0000
86.2139	111.0000
86.4909	130.0000
86.7679	137.0000
87.0450	133.0000
87.3220	125.0000
87.5991	113.0000
87.8761	106.0000
88.1532	119.0000
88.4302	119.0000
88.7073	79.0000
88.9843	101.0000
89.2614	110.0000
89.5384	103.0000
89.8154	112.0000
90.0925	96.0000
90.3695	105.0000
90.6466	98.0000
90.9236	100.0000
91.2007	110.0000
91.4777	96.0000
91.7548	101.0000
92.0318	99.0000
92.3088	83.0000
92.5859	87.0000
92.8629	85.0000
93.1400	93.0000
93.4170	99.0000
93.6941	105.0000
93.9711	73.0000
94.2482	88.0000
94.5252	106.0000
94.8023	108.0000
95.0793	99.0000
95.3563	95.0000
95.6334	96.0000
95.9104	88.0000
96.1875	79.0000
96.4645	88.0000
96.7416	82.0000
97.0186	91.0000
97.2957	82.0000
97.5727	87.0000
97.8498	89.0000
98.1268	103.0000
98.4038	86.0000
98.6809	126.0000
98.9579	429.0000
99.2350	323.0000
99.5120	240.0000
99.7891	115.0000
100.0353	107.0000