File: Advanced_Physics_Laboratory/Pysical_Properties/XRD/peak_data.dat
x y
20 311
20.277 305
20.5541 322
20.8311 287
21.1082 313
21.3852 270
21.6623 285
21.9393 277
22.2164 280
22.4934 246
22.7705 245
23.0475 226
23.3245 256
23.6016 235
23.8786 298
24.1557 263
24.4327 205
24.7098 210
24.9868 193
25.2639 203
25.5409 201
25.818 173
26.095 195
26.372 199
26.6491 203
26.9261 192
27.2032 222
27.4802 251
27.7573 177
28.0343 215
28.3114 218
28.5884 151
28.8655 166
29.1425 148
29.4195 171
29.6966 172
29.9736 187
30.2507 150
30.5277 180
30.8048 147
31.0818 180
31.3589 187
31.6359 172
31.913 165
32.19 143
32.467 144
32.7441 156
33.0211 143
33.2982 147
33.5752 175
33.8523 131
34.1293 168
34.4064 171
34.6834 156
34.9605 151
35.2375 148
35.5145 141
35.7916 166
36.0686 126
36.3457 147
36.6227 175
36.8998 178
37.1768 141
37.4539 168
37.7309 152
38.008 148
38.285 365
38.562 1068
38.8391 163
39.1161 162
39.3932 156
39.6702 157
39.9473 168
40.2243 475
40.5014 139
40.7784 129
41.0555 142
41.3325 149
41.6095 145
41.8866 162
42.1636 188
42.4407 188
42.7177 341
42.9948 202
43.2718 220
43.5489 300
43.8259 220
44.1029 332
44.38 704
44.657 14634
44.9341 1856
45.2111 342
45.4882 262
45.7652 266
46.0423 227
46.3193 226
46.5964 211
46.8734 213
47.1504 176
47.4275 192
47.7045 165
47.9816 151
48.2586 145
48.5357 158
48.8127 181
49.0898 140
49.3668 144
49.6439 114
49.9209 140
50.1979 122
50.475 127
50.752 130
51.0291 109
51.3061 85
51.5832 101
51.8602 96
52.1373 92
52.4143 81
52.6914 92
52.9684 89
53.2454 90
53.5225 82
53.7995 97
54.0766 85
54.3536 96
54.6307 87
54.9077 92
55.1848 95
55.4618 86
55.7389 80
56.0159 79
56.2929 82
56.57 92
56.847 100
57.1241 92
57.4011 93
57.6782 80
57.9552 92
58.2323 105
58.5093 80
58.7864 98
59.0634 107
59.3404 102
59.6175 75
59.8945 92
60.1716 98
60.4486 110
60.7257 84
61.0027 95
61.2798 100
61.5568 108
61.8339 117
62.1109 153
62.3879 113
62.665 111
62.942 120
63.2191 130
63.4961 116
63.7732 120
64.0502 120
64.3273 140
64.6043 196
64.8814 605
65.1584 3171
65.4354 506
65.7125 211
65.9895 176
66.2666 156
66.5436 163
66.8207 138
67.0977 160
67.3748 132
67.6518 120
67.9289 134
68.2059 126
68.4829 126
68.76 136
69.037 134
69.3141 121
69.5911 145
69.8682 139
70.1452 131
70.4223 125
70.6993 134
70.9764 121
71.2534 133
71.5304 135
71.8075 140
72.0845 144
72.3616 131
72.6386 149
72.9157 145
73.1927 144
73.4698 147
73.7468 173
74.0239 166
74.3009 260
74.5779 186
74.855 183
75.132 182
75.4091 193
75.6861 198
75.9632 201
76.2402 213
76.5173 251
76.7943 282
77.0714 249
77.3484 293
77.6254 436
77.9025 1210
78.1795 27468
78.4566 19690
78.7336 724
79.0107 387
79.2877 336
79.5648 308
79.8418 253
80.1189 242
80.3959 229
80.6729 233
80.95 221
81.227 207
81.5041 202
81.7811 173
82.0582 228
82.3352 201
82.6123 204
82.8893 177
83.1664 138
83.4434 168
83.7204 154
83.9975 160
84.2745 162
84.5516 142
84.8286 125
85.1057 134
85.3827 136
85.6598 133
85.9368 144
86.2139 111
86.4909 130
86.7679 137
87.045 133
87.322 125
87.5991 113
87.8761 106
88.1532 119
88.4302 119
88.7073 79
88.9843 101
89.2614 110
89.5384 103
89.8154 112
90.0925 96
90.3695 105
90.6466 98
90.9236 100
91.2007 110
91.4777 96
91.7548 101
92.0318 99
92.3088 83
92.5859 87
92.8629 85
93.14 93
93.417 99
93.6941 105
93.9711 73
94.2482 88
94.5252 106
94.8023 108
95.0793 99
95.3563 95
95.6334 96
95.9104 88
96.1875 79
96.4645 88
96.7416 82
97.0186 91
97.2957 82
97.5727 87
97.8498 89
98.1268 103
98.4038 86
98.6809 126
98.9579 429
99.235 323
99.512 240
99.7891 115
100.035 107