File: Advanced_Physics_Laboratory/Pysical_Properties/XRD/peak.dat
x_peak y_peak
38.4851 2087
38.5774 1134
40.2243 475
42.7639 491
43.5181 351
44.7186 40962
44.8417 23048
58.1707 184
62.0493 198
65.0968 15157
65.2815 8189
69.5142 349
74.3625 426
78.2103 37309
78.4412 20542
99.0657 2939
99.4043 1520